ppm,intensity
-40.7211,62.3402
-40.5738,68.4613
-40.4264,69.7796
-40.279,67.3577
-40.1317,62.6336
-39.9843,58.2288
-39.8369,57.2311
-39.6896,62.3152
-39.5422,69.0737
-39.3949,72.7762
-39.2475,75.8957
-39.1001,77.6814
-38.9528,73.2485
-38.8054,62.3909
-38.6581,54.3248
-38.5107,55.7842
-38.3633,62.1481
-38.216,71.0461
-38.0686,80.214
-37.9213,86.0384
-37.7739,91.5716
-37.6265,97.8302
-37.4792,103.105
-37.3318,105.603
-37.1844,101.781
-37.0371,96.0957
-36.8897,90.3581
-36.7424,82.9915
-36.595,79.8879
-36.4476,80.8447
-36.3003,82.3678
-36.1529,82.3622
-36.0056,78.8474
-35.8582,72.2725
-35.7108,67.1704
-35.5635,68.4494
-35.4161,73.5272
-35.2688,76.8429
-35.1214,77.7517
-34.974,77.1256
-34.8267,76.3983
-34.6793,79.8927
-34.5319,83.933
-34.3846,83.1092
-34.2372,80.1623
-34.0899,81.0064
-33.9425,85.6437
-33.7951,89.0393
-33.6478,88.7747
-33.5004,87.4699
-33.3531,91.8122
-33.2057,99.2837
-33.0583,104.918
-32.911,109.416
-32.7636,114.202
-32.6162,118.148
-32.4689,119.697
-32.3215,122.018
-32.1742,126.305
-32.0268,132.632
-31.8794,140.605
-31.7321,148.186
-31.5847,156.113
-31.4374,164.398
-31.29,168.591
-31.1426,167.359
-30.9953,162.686
-30.8479,156.757
-30.7006,152.948
-30.5532,152.29
-30.4058,153.645
-30.2585,156.399
-30.1111,158.875
-29.9637,157.752
-29.8164,152.248
-29.669,146.339
-29.5217,148.65
-29.3743,158.729
-29.2269,169.571
-29.0796,175.983
-28.9322,174.377
-28.7849,169.822
-28.6375,164.98
-28.4901,161.547
-28.3428,161.355
-28.1954,159.638
-28.0481,154.695
-27.9007,148.069
-27.7533,141.056
-27.606,138.252
-27.4586,139.729
-27.3112,140.591
-27.1639,144.72
-27.0165,154.859
-26.8692,165.474
-26.7218,174.171
-26.5744,182.647
-26.4271,193.278
-26.2797,206.25
-26.1324,214.527
-25.985,213.315
-25.8376,206.075
-25.6903,195.613
-25.5429,184.511
-25.3956,177.599
-25.2482,178.602
-25.1008,184.724
-24.9535,187.224
-24.8061,182.208
-24.6587,175.31
-24.5114,170.973
-24.364,167.94
-24.2167,162.23
-24.0693,149.59
-23.9219,135.464
-23.7746,126.117
-23.6272,119.579
-23.4799,116.073
-23.3325,115.249
-23.1851,117.272
-23.0378,120.349
-22.8904,120.845
-22.7431,119.319
-22.5957,114.682
-22.4483,109.358
-22.301,105.066
-22.1536,102.3
-22.0062,101.85
-21.8589,103.906
-21.7115,110.537
-21.5642,119.636
-21.4168,123.763
-21.2694,115.356
-21.1221,101.917
-20.9747,93.6154
-20.8274,88.657
-20.68,83.5342
-20.5326,78.1448
-20.3853,77.0579
-20.2379,82.3335
-20.0906,88.3205
-19.9432,87.2231
-19.7958,78
-19.6485,67.3793
-19.5011,60.9495
-19.3537,61.0324
-19.2064,66.9572
-19.059,73.1278
-18.9117,76.3741
-18.7643,73.3208
-18.6169,64.1536
-18.4696,55.9816
-18.3222,52.7043
-18.1749,54.1954
-18.0275,55.7922
-17.8801,57.2713
-17.7328,60.722
-17.5854,64.0364
-17.438,68.032
-17.2907,75.4157
-17.1433,84.702
-16.996,86.8474
-16.8486,78.6001
-16.7012,69.6092
-16.5539,66.6512
-16.4065,68.2493
-16.2592,71.1688
-16.1118,77.5729
-15.9644,88.0782
-15.8171,97.5556
-15.6697,102.779
-15.5224,102.428
-15.375,103.812
-15.2276,110.559
-15.0803,115.557
-14.9329,115.014
-14.7855,110.792
-14.6382,109.626
-14.4908,111.636
-14.3435,109.252
-14.1961,104.763
-14.0487,105.646
-13.9014,107.136
-13.754,101.334
-13.6067,89.0846
-13.4593,77.2066
-13.3119,67.8299
-13.1646,57.2519
-13.0172,49.7703
-12.8699,50.2014
-12.7225,55.6537
-12.5751,62.4034
-12.4278,65.0358
-12.2804,60.9728
-12.133,53.8008
-11.9857,49.2478
-11.8383,53.4942
-11.691,62.8384
-11.5436,68.91
-11.3962,71.716
-11.2489,72.37
-11.1015,69.713
-10.9542,67.6327
-10.8068,68.4554
-10.6594,68.9654
-10.5121,70.6106
-10.3647,71.5595
-10.2174,67.9409
-10.07,65.1817
-9.92263,68.5871
-9.77527,75.5969
-9.62791,78.1384
-9.48055,71.7371
-9.33318,61.8885
-9.18582,56.0486
-9.03846,57.9713
-8.8911,64.4965
-8.74374,70.7693
-8.59638,79.2166
-8.44902,87.5296
-8.30166,89.2289
-8.1543,84.7995
-8.00693,80.8544
-7.85957,82.2578
-7.71221,84.1855
-7.56485,80.8009
-7.41749,73.0292
-7.27013,65.5943
-7.12277,65.1289
-6.97541,71.3483
-6.82804,77.4981
-6.68068,83.0108
-6.53332,87.8027
-6.38596,91.2626
-6.2386,94.1552
-6.09124,92.0186
-5.94388,85.0455
-5.79652,81.0584
-5.64916,84.1725
-5.50179,89.2253
-5.35443,87.6544
-5.20707,82.9355
-5.05971,83.3921
-4.91235,88.5196
-4.76499,96.5354
-4.61763,104.257
-4.47027,107.323
-4.32291,104.526
-4.17554,96.1277
-4.02818,87.0987
-3.88082,85.6901
-3.73346,88.9444
-3.5861,88.0538
-3.43874,84.9847
-3.29138,84.4026
-3.14402,87.0178
-2.99665,89.4004
-2.84929,87.37
-2.70193,81.722
-2.55457,78.601
-2.40721,84.1567
-2.25985,94.314
-2.11249,100.341
-1.96513,98.0739
-1.81777,89.732
-1.6704,80.8381
-1.52304,74.3563
-1.37568,71.4704
-1.22832,73.2493
-1.08096,81.3553
-0.933598,92.9626
-0.786237,101.156
-0.638876,100.732
-0.491515,92.1846
-0.344153,82.1177
-0.196792,72.64
-0.0494311,67.8945
0.0979301,72.1976
0.245291,79.8248
0.392652,85.5459
0.540014,85.826
0.687375,83.8045
0.834736,85.9822
0.982097,90.8662
1.12946,95.205
1.27682,97.2937
1.42418,99.0721
1.57154,106.445
1.7189,119.383
1.86626,127.453
2.01363,126.929
2.16099,124.833
2.30835,120.739
2.45571,111.103
2.60307,98.4343
2.75043,87.3103
2.89779,79.8731
3.04515,75.0487
3.19251,73.5377
3.33988,77.7976
3.48724,85.6155
3.6346,91.132
3.78196,94.3968
3.92932,100.03
4.07668,108.41
4.22404,116.58
4.3714,126.603
4.51877,139.768
4.66613,148.414
4.81349,147.173
4.96085,142.487
5.10821,142.835
5.25557,145.677
5.40293,146.973
5.55029,150.209
5.69765,157.9
5.84502,164.654
5.99238,167.358
6.13974,166.34
6.2871,158.821
6.43446,148.07
6.58182,138.725
6.72918,129.492
6.87654,119.912
7.02391,115.442
7.17127,118.17
7.31863,127.605
7.46599,142.163
7.61335,153.591
7.76071,157.892
7.90807,155.341
8.05543,150.66
8.20279,151.007
8.35016,154.894
8.49752,156.474
8.64488,154.712
8.79224,152.496
8.9396,152.427
9.08696,154.71
9.23432,159.172
9.38168,165.095
9.52904,170.316
9.67641,172.608
9.82377,168.721
9.97113,162.55
10.1185,161.579
10.2659,168.138
10.4132,178.099
10.5606,189.545
10.7079,205.168
10.8553,221.278
11.0027,233.553
11.15,239.747
11.2974,243.775
11.4447,251.724
11.5921,262.965
11.7395,273.257
11.8868,281.429
12.0342,289.081
12.1815,295.833
12.3289,304.827
12.4763,314.811
12.6236,323.221
12.771,332.872
12.9184,346.986
13.0657,368.608
13.2131,394.933
13.3604,422.825
13.5078,453.397
13.6552,487.368
13.8025,526.144
13.9499,570.527
14.0972,618.261
14.2446,668.433
14.392,722.946
14.5393,784.099
14.6867,852.433
14.834,928.39
14.9814,1012.66
15.1288,1102.6
15.2761,1191.66
15.4235,1275.23
15.5709,1353.42
15.7182,1426.94
15.8656,1500.78
16.0129,1573.37
16.1603,1638.83
16.3077,1699.16
16.455,1751.86
16.6024,1793.96
16.7497,1828.27
16.8971,1858.14
17.0445,1884.68
17.1918,1909.93
17.3392,1937.1
17.4865,1966.77
17.6339,2000.14
17.7813,2037.43
17.9286,2077.83
18.076,2122.44
18.2234,2173.22
18.3707,2231.46
18.5181,2303.1
18.6654,2397.23
18.8128,2514.01
18.9602,2646.69
19.1075,2796.98
19.2549,2975.56
19.4022,3184.77
19.5496,3419.32
19.697,3678.27
19.8443,3960.7
19.9917,4259.63
20.139,4568.44
20.2864,4878.63
20.4338,5176.09
20.5811,5450.77
20.7285,5692.13
20.8759,5888.71
21.0232,6038.69
21.1706,6144.44
21.3179,6210.85
21.4653,6240.19
21.6127,6228.13
21.76,6176.17
21.9074,6091.07
22.0547,5980.4
22.2021,5855.35
22.3495,5737.08
22.4968,5642.19
22.6442,5565.79
22.7916,5502.59
22.9389,5459.62
23.0863,5443.81
23.2336,5452.92
23.381,5483.37
23.5284,5539.53
23.6757,5629.99
23.8231,5753.98
23.9704,5903.75
24.1178,6076.63
24.2652,6269.69
24.4125,6478.03
24.5599,6695.72
24.7072,6915.52
24.8546,7128.52
25.002,7324.38
25.1493,7490.1
25.2967,7609.15
25.4441,7667.07
25.5914,7654.31
25.7388,7566.23
25.8861,7408.01
26.0335,7196.32
26.1809,6952.6
26.3282,6695.51
26.4756,6434.11
26.6229,6177.55
26.7703,5939.77
26.9177,5739.94
27.065,5592.15
27.2124,5491.32
27.3597,5430.7
27.5071,5406.29
27.6545,5414.17
27.8018,5456.78
27.9492,5536.53
28.0966,5647.5
28.2439,5786.78
28.3913,5957.44
28.5386,6153.84
28.686,6368.37
28.8334,6596.14
28.9807,6830.94
29.1281,7068.47
29.2754,7305.69
29.4228,7540.21
29.5702,7768.52
29.7175,7982.22
29.8649,8169.79
30.0122,8322.79
30.1596,8441.7
30.307,8528.71
30.4543,8582.93
30.6017,8602.07
30.7491,8586.42
30.8964,8544.3
31.0438,8483.86
31.1911,8404.92
31.3385,8303.93
31.4859,8183.43
31.6332,8048.94
31.7806,7899.83
31.9279,7732.01
32.0753,7550.17
32.2227,7361.4
32.37,7163.57
32.5174,6953.07
32.6647,6728.86
32.8121,6491.21
32.9595,6243.15
33.1068,5987.65
33.2542,5725.04
33.4016,5459.97
33.5489,5196.94
33.6963,4937.74
33.8436,4679.95
33.991,4421.45
34.1384,4173.36
34.2857,3941.23
34.4331,3721.04
34.5804,3509.74
34.7278,3303.7
34.8752,3104.26
35.0225,2916.85
35.1699,2745.58
35.3172,2592.87
35.4646,2460.7
35.612,2344.78
35.7593,2233
35.9067,2124
36.0541,2026.54
36.2014,1943.02
36.3488,1866.39
36.4961,1791.11
36.6435,1724.31
36.7909,1668.86
36.9382,1623.06
37.0856,1586.49
37.2329,1553.69
37.3803,1521.99
37.5277,1491.78
37.675,1464.31
37.8224,1438.09
37.9698,1410.95
38.1171,1383.2
38.2645,1358.17
38.4118,1339.26
38.5592,1324.08
38.7066,1309.31
38.8539,1292.95
39.0013,1276.71
39.1486,1263.58
39.296,1251.58
39.4434,1239.47
39.5907,1231.56
39.7381,1233.19
39.8854,1247.89
40.0328,1275.08
40.1802,1310.57
40.3275,1352.05
40.4749,1397.91
40.6223,1450.99
40.7696,1519.59
40.917,1604.08
41.0643,1701.03
41.2117,1809.47
41.3591,1922.26
41.5064,2027.99
41.6538,2124.69
41.8011,2220.27
41.9485,2312.95
42.0959,2394.71
42.2432,2464.68
42.3906,2522.16
42.5379,2565
42.6853,2589.51
42.8327,2589.63
42.98,2567.16
43.1274,2530.36
43.2748,2481.07
43.4221,2417.76
43.5695,2342.3
43.7168,2257.06
43.8642,2163.94
44.0116,2071.04
44.1589,1983.32
44.3063,1892.17
44.4536,1791.93
44.601,1691.02
44.7484,1595.96
44.8957,1506.52
45.0431,1424.28
45.1904,1347.81
45.3378,1282.03
45.4852,1232.96
45.6325,1199.26
45.7799,1180.71
45.9273,1173.93
46.0746,1175.69
46.222,1185.39
46.3693,1203.27
46.5167,1228.02
46.6641,1257.51
46.8114,1289.21
46.9588,1322.81
47.1061,1361.09
47.2535,1401.04
47.4009,1435.07
47.5482,1465.36
47.6956,1499.96
47.8429,1533.06
47.9903,1561.01
48.1377,1588.56
48.285,1619.61
48.4324,1661.31
48.5798,1717.87
48.7271,1788.8
48.8745,1868.63
49.0218,1951.85
49.1692,2035.08
49.3166,2111.24
49.4639,2176.16
49.6113,2230.07
49.7586,2269.49
49.906,2296.22
50.0534,2317.48
50.2007,2334.13
50.3481,2351.22
50.4955,2379.95
50.6428,2425.78
50.7902,2490.74
50.9375,2577.52
51.0849,2687.8
51.2323,2820.75
51.3796,2970.65
51.527,3130.98
51.6743,3298.99
51.8217,3471.93
51.9691,3646.46
52.1164,3817.11
52.2638,3975.85
52.4111,4117.64
52.5585,4238.02
52.7059,4333.61
52.8532,4402.79
53.0006,4445.65
53.148,4467
53.2953,4467.5
53.4427,4449.27
53.59,4421.42
53.7374,4388.58
53.8848,4348
54.0321,4295.64
54.1795,4230.78
54.3268,4151.74
54.4742,4061.99
54.6216,3971.42
54.7689,3885.58
54.9163,3802.89
55.0636,3716.22
55.211,3620.73
55.3584,3514.44
55.5057,3396.48
55.6531,3270.84
55.8005,3140.26
55.9478,3004.86
56.0952,2867.34
56.2425,2733.12
56.3899,2603.42
56.5373,2474.43
56.6846,2349.29
56.832,2233.64
56.9793,2127.93
57.1267,2032.8
57.2741,1948.59
57.4214,1871
57.5688,1796.13
57.7161,1730.64
57.8635,1683.54
58.0109,1654.55
58.1582,1637.12
58.3056,1633.12
58.453,1655.38
58.6003,1705.23
58.7477,1778.3
58.895,1877.13
59.0424,2001.59
59.1898,2148.27
59.3371,2316.44
59.4845,2504.61
59.6318,2707.11
59.7792,2924.43
59.9266,3150.39
60.0739,3368.96
60.2213,3572.53
60.3686,3757.19
60.516,3921
60.6634,4063.01
60.8107,4178.79
60.9581,4263.21
61.1055,4313.59
61.2528,4333.68
61.4002,4331.07
61.5475,4306.78
61.6949,4256.82
61.8423,4174.72
61.9896,4058.69
62.137,3919.84
62.2843,3767.84
62.4317,3602.96
62.5791,3426.59
62.7264,3246.37
62.8738,3066.59
63.0211,2890.43
63.1685,2725.37
63.3159,2575.38
63.4632,2437.26
63.6106,2308.16
63.758,2188.58
63.9053,2076.83
64.0527,1975.86
64.2,1887.3
64.3474,1806.61
64.4948,1730.44
64.6421,1656.14
64.7895,1582.84
64.9368,1507.11
65.0842,1423.08
65.2316,1333.44
65.3789,1249.95
65.5263,1173.13
65.6737,1097.89
65.821,1028.49
65.9684,963.132
66.1157,896.273
66.2631,827.646
66.4105,763.669
66.5578,708.29
66.7052,658.287
66.8525,611.034
66.9999,565.659
67.1473,523.886
67.2946,480.489
67.442,439.645
67.5893,412.703
67.7367,395.387
67.8841,382.342
68.0314,370.012
68.1788,354.988
68.3262,337.565
68.4735,320.32
68.6209,302.73
68.7682,280.732
68.9156,253.154
69.063,225.239
69.2103,203.541
69.3577,188.706
69.505,178.255
69.6524,165.845
69.7998,151.864
69.9471,144.524
70.0945,142.887
70.2418,145.735
70.3892,155.588
70.5366,166.071
70.6839,169.711
70.8313,164.386
70.9787,153.114
71.126,141.618
71.2734,132.417
71.4207,126.947
71.5681,123.092
71.7155,119.131
71.8628,118.263
72.0102,120.7
72.1575,125.074
72.3049,130.822
72.4523,134.411
72.5996,135.644
72.747,137.673
72.8943,139.857
73.0417,140.114
73.1891,140.168
73.3364,139.577
73.4838,136.842
73.6312,137.303
73.7785,143.561
73.9259,151.179
74.0732,151.261
74.2206,139.765
74.368,123.078
74.5153,109.511
74.6627,101.855
74.81,99.5474
74.9574,99.3176
75.1048,94.3458
75.2521,86.3185
75.3995,81.1224
75.5468,77.3541
75.6942,72.6719
75.8416,69.9018
75.9889,70.0766
76.1363,73.3692
76.2837,80.2274
76.431,88.9558
76.5784,98.1831
76.7257,105.383
76.8731,110.174
77.0205,113.199
77.1678,112.324
77.3152,103.783
77.4625,93.2488
77.6099,87.2523
77.7573,80.6872
77.9046,71.1376
78.052,64.2417
78.1993,63.7051
78.3467,67.6684
78.4941,73.3223
78.6414,74.6257
78.7888,72.1059
78.9362,69.0222
79.0835,61.9095
79.2309,53.0345
79.3782,46.246
79.5256,42.3481
79.673,41.6578
79.8203,42.3288
79.9677,44.2229
80.115,47.5497
80.2624,51.9187
80.4098,56.4569
80.5571,56.7435
80.7045,54.7027
80.8519,54.2814
80.9992,55.9747
81.1466,58.0927
81.2939,54.6517
81.4413,46.0355
81.5887,39.7549
81.736,40.7237
81.8834,44.2541
82.0307,47.0143
82.1781,50.3169
82.3255,55.4049
82.4728,65.2857
82.6202,74.0197
82.7675,72.3227
82.9149,62.9144
83.0623,53.6211
83.2096,47.2183
83.357,46.8976
83.5044,52.2734
83.6517,57.2334
83.7991,60.2439
83.9464,61.0239
84.0938,59.2053
84.2412,56.4853
84.3885,52.0744
84.5359,46.1403
84.6832,41.6776
84.8306,39.0949
84.978,35.435
85.1253,32.3472
85.2727,34.7849
85.42,38.1726
85.5674,38.5504
85.7148,35.2835
85.8621,27.5746
86.0095,23.3587
86.1569,26.63
86.3042,31.4169
86.4516,34.3926
86.5989,36.0042
86.7463,34.8499
86.8937,31.525
87.041,32.6419
87.1884,39.7571
87.3357,44.263
87.4831,46.1642
87.6305,49.8567
87.7778,50.9709
87.9252,48.6874
88.0725,45.3654
88.2199,40.6889
88.3673,37.8037
88.5146,38.6483
88.662,37.2976
88.8094,30.6194
88.9567,20.3083
89.1041,13.6148
89.2514,17.1985
89.3988,27.5595
89.5462,36.2124
89.6935,38.9887
89.8409,40.4746
89.9882,42.3228
90.1356,44.985
90.283,49.8439
90.4303,56.1394
90.5777,58.9715
90.725,53.3903
90.8724,43.7203
91.0198,37.3294
91.1671,36.3894
91.3145,36.8024
91.4619,38.6209
91.6092,42.8036
91.7566,46.9798
91.9039,51.7891
92.0513,58.852
92.1987,64.8658
92.346,68.5734
92.4934,74.7652
92.6407,80.8367
92.7881,82.0991
92.9355,79.6655
93.0828,75.8185
93.2302,71.8459
93.3776,70.1234
93.5249,68.1792
93.6723,61.1483
93.8196,54.121
93.967,51.4722
94.1144,52.4927
94.2617,56.3882
94.4091,59.3311
94.5564,55.501
94.7038,45.9012
94.8512,41.5528
94.9985,47.6489
95.1459,57.8793
95.2932,66.9262
95.4406,72.6883
95.588,76.6271
95.7353,82.3697
95.8827,85.6752
96.0301,84.0154
96.1774,80.9688
96.3248,78.4894
96.4721,79.9978
96.6195,84.553
96.7669,86.2142
96.9142,81.8768
97.0616,77.1195
97.2089,76.3344
97.3563,78.4023
97.5037,82.2473
97.651,79.782
97.7984,66.9364
97.9457,52.7419
98.0931,48.686
98.2405,54.9464
98.3878,64.7015
98.5352,74.0374
98.6826,84.4221
98.8299,94.3144
98.9773,98.9185
99.1246,102.301
99.272,104.242
99.4194,99.3848
99.5667,86.6319
99.7141,74.4199
99.8614,71.3879
100.009,76.8925
100.156,85.3108
100.304,92.8951
100.451,101.912
100.598,109.483
100.746,113.87
100.893,117.242
101.04,122.514
101.188,129.977
101.335,135.369
101.482,138.688
101.63,144.717
101.777,153.653
101.924,160.28
102.072,160.556
102.219,154.982
102.367,150.144
102.514,148.189
102.661,147.999
102.809,147.504
102.956,146.361
103.103,146.467
103.251,146.127
103.398,144.323
103.545,143.039
103.693,139.739
103.84,128.36
103.988,110.634
104.135,92.6096
104.282,81.2324
104.43,74.9646
104.577,68.4421
104.724,60.7508
104.872,53.4392
105.019,48.401
105.166,44.1846
105.314,38.7721
105.461,32.5125
105.609,28.7181
105.756,24.6147
105.903,23.0724
106.051,28.5646
106.198,36.8267
106.345,42.6654
106.493,43.6334
106.64,42.431
106.787,39.6934
106.935,38.6238
107.082,42.7067
107.23,51.1305
107.377,57.8183
107.524,54.4575
107.672,44.0026
107.819,35.3818
107.966,28.9266
108.114,22.4822
108.261,16.5198
108.408,10.875
108.556,9.30133
108.703,11.9984
108.85,14.7723
108.998,15.4088
109.145,11.7354
109.293,5.32575
109.44,0.704858
109.587,-0.677078
109.735,1.03299
109.882,5.22336
110.029,10.8921
110.177,15.5341
110.324,16.1837
110.471,13.0445
110.619,9.82391
110.766,10.8529
110.914,11.8467
111.061,8.12807
111.208,5.35274
111.356,9.43999
111.503,18.0825
111.65,26.147
111.798,32.796
111.945,39.7664
112.092,46.037
112.24,48.6752
112.387,49.8454
112.535,51.2694
112.682,49.5167
112.829,48.8297
112.977,57.3371
113.124,68.9494
113.271,75.8506
113.419,79.5378
113.566,80.9958
113.713,80.4488
113.861,80.8649
114.008,86.297
114.155,97.6884
114.303,113.77
114.45,132.158
114.598,149.319
114.745,162.647
114.892,170.4
115.04,173.017
115.187,173.324
115.334,174.763
115.482,183.045
115.629,196.447
115.776,203.95
115.924,201.126
116.071,190.651
116.219,177.229
116.366,168.941
116.513,169.533
116.661,169.979
116.808,164.641
116.955,159.29
117.103,157.255
117.25,156.115
117.397,154.207
117.545,149.286
117.692,141.074
117.84,134.951
117.987,129.085
118.134,120.541
118.282,113.997
118.429,111.301
118.576,106.075
118.724,91.71
118.871,71.5652
119.018,55.1496
119.166,48.9224
119.313,53.1906
119.46,62.1343
119.608,66.9177
119.755,65.0516
119.903,59.4807
120.05,54.9721
120.197,53.0202
120.345,49.6364
120.492,43.9375
120.639,38.5069
120.787,35.3616
120.934,35.5297
121.081,41.2668
121.229,50.6755
121.376,60.0386
121.524,70.8008
121.671,81.1212
121.818,87.1112
121.966,87.1405
122.113,81.1515
122.26,75.3193
122.408,72.7122
122.555,69.9995
122.702,66.5571
122.85,64.3023
122.997,65.7944
123.145,69.142
123.292,69.9928
123.439,66.2105
123.587,59.7378
123.734,55.2522
123.881,54.4402
124.029,59.6523
124.176,71.5587
124.323,84.3865
124.471,90.2918
124.618,88.3834
124.765,84.929
124.913,81.171
125.06,79.7492
125.208,87.2638
125.355,100.226
125.502,111.043
125.65,119.951
125.797,127.792
125.944,134.869
126.092,147.248
126.239,164.285
126.386,179.579
126.534,192.559
126.681,203.68
126.829,213.141
126.976,223.394
127.123,234.703
127.271,248.685
127.418,266.112
127.565,280.354
127.713,293.376
127.86,309.481
128.007,326.124
128.155,345.349
128.302,368.574
128.45,394.972
128.597,425.403
128.744,458.015
128.892,486.669
129.039,506.119
129.186,519.911
129.334,538.716
129.481,564.135
129.628,589.307
129.776,614.089
129.923,641.476
130.07,672.434
130.218,708.159
130.365,745.043
130.513,777.242
130.66,799.422
130.807,809.855
130.955,813.472
131.102,810.808
131.249,799.96
131.397,785.32
131.544,770.483
131.691,751.365
131.839,727.352
131.986,701.287
